wavelength_nm,intensity
380,11
390,16
400,22
410,33
420,48
430,62
440,71
450,78
460,84
470,92
480,97
490,100
500,96
510,95
520,95
530,94
540,90
550,78
560,70
570,78
580,88
590,94
600,91
610,85
620,82
630,85
640,92
650,100
660,89
670,76
680,83
690,100
