wavelength_nm,defocus_um
400,285.0
410,190.0
420,118.0
430,63.0
440,22.0
450,-9.0
460,-31.0
470,-46.0
480,-56.0
490,-62.0
500,-64.0
510,-63.0
520,-60.0
530,-54.0
540,-48.0
550,-39.0
560,-30.0
570,-20.0
580,-9.0
590,3.0
600,15.0
610,28.0
620,41.0
630,54.0
640,68.0
650,82.0
660,96.0
670,111.0
680,125.0
690,139.0
700,156.0
