# wavelength_nm , delta_x_um   (Ã—4 exaggeration for visual clarity)
400.0, -20.80
410.0, -19.60
420.0, -18.20
430.0, -16.40
440.0, -14.80
450.0, -13.40
460.0, -12.20
470.0, -10.80
480.0,  -9.20
490.0,  -7.60
500.0,  -5.80
510.0,  -4.00
520.0,  -2.60
530.0,  -1.40
540.0,  -0.60
550.0,   0.00
560.0,   0.60
570.0,   1.40
580.0,   2.40
590.0,   3.60
600.0,   4.80
610.0,   6.20
620.0,   7.40
630.0,   8.60
640.0,   9.80
650.0,  11.20
660.0,  12.80
670.0,  14.20
680.0,  15.60
690.0,  17.00
